#HEIGHT=  2532
#WIDTH =  3352
#TIME  =  0.000000
#          #
#   1 X_IMAGE         Object position along x                         [pixel]
#   2 Y_IMAGE         Object position along y                         [pixel]
#   3 MAG_APER        Fixed aperture magnitude vector                 [mag]
#   4 FWHM_IMAGE      FWHM assuming a gaussian core                   [pixel]
#   5 FLAGS           Extraction flags
#   6 CLASS_STAR      S/G classifier output
#   7 ELONGATION      A_IMAGE/B_IMAGE
#   8 ELLIPTICITY     1 - B_IMAGE/A_IMAGE
#   9 A_IMAGE         Profile RMS along major axis                    [pixel]
#  10 B_IMAGE         Profile RMS along minor axis                    [pixel]
#  11 THETA_IMAGE     Position angle (CCW/x)                          [deg]
   190.395    485.033  -0.3806    18.36 000  0.00    1.152    0.132     6.14     5.33  12.7
   832.399    606.182   0.2375     7.39 000  0.03    2.171    0.539     1.82     0.84  66.6
  2988.987    893.502   0.9169    23.57 000  0.00    1.931    0.482     5.46     2.83  26.1
  1541.655   1245.584  -1.1904    22.21 000  0.07    1.295    0.228     8.09     6.25  24.5
   782.286   1215.599   1.1878    13.83 002  0.00    1.884    0.469     3.17     1.68  26.8
   776.778   1209.890   1.2842     5.88 002  0.02    1.299    0.230     1.12     0.87  17.8
  2629.023   1378.556  -0.9286    23.90 000  0.02    1.444    0.308     8.29     5.74  21.4
  1113.601   1379.299   1.1153    13.97 002  0.00    1.395    0.283     2.75     1.97  62.0
  1118.996   1384.490   1.0665    11.98 002  0.00    1.403    0.287     2.37     1.69 -48.0
  1971.137   1503.252  -1.5276    23.01 000  0.68    1.348    0.258     8.49     6.30  23.6
  1558.940   1456.250   1.0891    20.07 000  0.00    2.155    0.536     4.91     2.28  34.3
  1417.436   1543.302  -2.1617    21.90 000  0.84    1.311    0.237     7.57     5.78  25.6
  1753.267   2257.969  -0.1268    22.51 000  0.00    1.550    0.355     6.84     4.41  32.2
   103.018   2529.018  -0.0376    15.57 008  0.00    2.177    0.541     4.76     2.19   1.0
   734.550   1914.570   1.1169     0.38 002  1.00    1.617    0.382     0.88     0.54  53.9
   730.925   1911.756   0.8078     4.34 002  0.80    2.338    0.572     1.55     0.66  42.7
   726.856   1922.668   0.3565     5.55 000  0.03    1.688    0.408     1.26     0.75  38.1
  1799.544   1747.661  -1.3752    23.71 000  0.74    1.492    0.330     7.57     5.08  25.6
  1245.358   1643.900  -1.2007    22.02 000  0.10    1.299    0.230     8.05     6.20  28.3
  2916.048   1639.362  -0.4919    23.96 000  0.01    1.478    0.323     7.91     5.35  24.5
  1737.750   1633.718   0.9195    17.57 002  0.00    1.422    0.297     3.49     2.46 -21.3
  1730.036   1628.021   0.9883    17.78 002  0.00    1.399    0.285     3.51     2.51 -14.8
  1746.576   1927.136  -0.2423    17.65 002  0.00    1.165    0.142     5.01     4.30 -59.7
   738.770   1923.823   0.5864     4.48 002  0.84    2.078    0.519     1.47     0.71 -75.9
   732.227   2377.216   0.7747     7.19 000  0.83    3.601    0.722     2.28     0.63  57.7
   460.988   2253.321   0.7382    24.92 000  0.00    1.597    0.374     5.29     3.31  48.2
  1938.231   2005.288  -1.2749    23.47 000  0.73    1.561    0.359     7.60     4.87  26.1
    60.417   1989.497   0.7425    24.67 000  0.00    1.430    0.301     4.91     3.44  51.2
  1753.889   1932.018  -0.2961    16.61 002  0.00    1.296    0.228     5.08     3.92 -48.0
   545.001   1818.878   0.2743     4.32 000  1.00    1.091    0.084     0.76     0.70  88.6
   737.387   1918.111   1.2785     5.10 002  0.67    2.151    0.535     1.26     0.58  62.9
