#HEIGHT=  2532
#WIDTH =  3352
#TIME  =  0.000000
#          #
#   1 X_IMAGE         Object position along x                         [pixel]
#   2 Y_IMAGE         Object position along y                         [pixel]
#   3 MAG_APER        Fixed aperture magnitude vector                 [mag]
#   4 FWHM_IMAGE      FWHM assuming a gaussian core                   [pixel]
#   5 FLAGS           Extraction flags
#   6 CLASS_STAR      S/G classifier output
#   7 ELONGATION      A_IMAGE/B_IMAGE
#   8 ELLIPTICITY     1 - B_IMAGE/A_IMAGE
#   9 A_IMAGE         Profile RMS along major axis                    [pixel]
#  10 B_IMAGE         Profile RMS along minor axis                    [pixel]
#  11 THETA_IMAGE     Position angle (CCW/x)                          [deg]
    85.915    479.975  -0.1968    18.35 000  0.00    1.096    0.088     5.83     5.32 -28.1
  2881.715    888.637   1.0348    23.27 000  0.00    1.871    0.465     5.30     2.84  20.0
  2246.012   1090.749   0.1306     0.00 000  1.00    1.192    0.161     0.85     0.72 -85.2
  1437.313   1241.148  -1.0216    21.28 000  0.06    1.153    0.133     7.32     6.35  21.3
   671.632   1209.317   1.2963     6.17 000  0.00    1.422    0.297     1.23     0.87  55.7
  2523.848   1374.034  -0.7719    22.70 000  0.03    1.264    0.209     7.65     6.05  21.3
  1013.415   1378.103   1.3170     7.62 002  0.00    3.330    0.700     2.33     0.70  51.8
  1006.690   1374.936   1.1652     9.61 002  0.00    1.156    0.135     1.72     1.49  11.5
  1449.077   1448.974   1.1844    15.28 002  0.00    1.413    0.292     3.03     2.14  68.9
  1865.946   1499.073  -1.3118    21.83 000  0.42    1.250    0.200     7.44     5.96  26.9
  1313.846   1539.384  -2.2178    21.42 000  0.84    1.152    0.132     8.15     7.08  28.8
  1613.294   1445.745   0.1341     2.89 000  0.41    1.328    0.247     1.11     0.84 -28.8
  1457.690   1453.669   1.1985     8.82 002  0.00    1.164    0.141     1.59     1.37 -49.1
  1647.010   2252.350   0.0953    24.07 000  0.00    1.405    0.288     6.50     4.63  32.0
     5.313   2527.029   0.1019    19.23 008  0.00    1.263    0.208     3.62     2.87  61.5
  1625.008   1616.286   1.3238     3.35 002  0.35    1.477    0.323     1.08     0.73  50.6
  1141.158   1638.467  -0.8683    21.29 000  0.09    1.204    0.169     6.95     5.77  29.4
  1771.944   1668.996   0.1091     1.25 000  0.98    1.093    0.085     0.83     0.76  89.0
  1628.952   1626.465   1.0415    21.78 002  0.00    1.943    0.485     5.06     2.60  31.8
  1695.451   1742.474  -1.4506    21.99 000  0.76    1.184    0.156     7.75     6.54  28.4
  2810.315   1634.610  -0.3041    26.20 000  0.00    1.319    0.242     7.41     5.62  22.7
   355.948   2248.000   0.6271    25.21 000  0.00    1.295    0.228     5.34     4.13  47.6
   494.966   2195.000   1.1776     5.66 002  0.32    2.272    0.560     1.43     0.63  15.5
  1645.143   1923.008  -0.1073    22.31 000  0.00    1.272    0.214     6.76     5.32  28.3
   498.484   2194.464   1.1719     2.92 002  0.03    1.269    0.212     0.93     0.73 -11.9
  1832.080   1999.653  -1.1830    22.00 000  0.67    1.344    0.256     6.95     5.17  27.4
   545.005   1818.871   0.2605     0.93 000  1.00    1.090    0.083     0.76     0.70 -89.9
