#HEIGHT=  2532
#WIDTH =  3352
#TIME  =  0.000000
#          #
#   1 X_IMAGE         Object position along x                         [pixel]
#   2 Y_IMAGE         Object position along y                         [pixel]
#   3 MAG_APER        Fixed aperture magnitude vector                 [mag]
#   4 FWHM_IMAGE      FWHM assuming a gaussian core                   [pixel]
#   5 FLAGS           Extraction flags
#   6 CLASS_STAR      S/G classifier output
#   7 ELONGATION      A_IMAGE/B_IMAGE
#   8 ELLIPTICITY     1 - B_IMAGE/A_IMAGE
#   9 A_IMAGE         Profile RMS along major axis                    [pixel]
#  10 B_IMAGE         Profile RMS along minor axis                    [pixel]
#  11 THETA_IMAGE     Position angle (CCW/x)                          [deg]
  3026.094     11.163   1.2874     6.00 000  0.00    1.672    0.402     1.30     0.78 -59.9
   156.179    485.888  -0.4818    16.57 000  0.00    1.131    0.116     5.71     5.05 -41.6
  2955.601    895.195   0.7979    19.77 002  0.00    1.075    0.070     3.56     3.31   9.8
  2949.753    892.208   0.8336    13.53 002  0.00    1.639    0.390     2.89     1.76 -52.5
  1613.249    870.816   1.2942     3.95 000  0.11    1.832    0.454     1.29     0.70   1.3
  1508.122   1246.904  -1.3502    18.77 000  0.15    1.084    0.077     7.01     6.47  19.2
   744.596   1214.634   1.0319    17.15 000  0.00    1.359    0.264     3.33     2.45  34.9
  2595.306   1380.123  -1.0399    19.82 000  0.11    1.217    0.179     7.17     5.89  20.5
  1081.780   1382.301   1.0150    19.15 000  0.00    1.254    0.202     3.57     2.85  22.7
  1937.602   1504.488  -1.6122    19.77 000  0.81    1.157    0.136     7.37     6.37  22.7
  1523.818   1456.541   0.9669    21.65 000  0.00    1.592    0.372     4.55     2.86  28.5
  1383.977   1544.799  -2.3131    18.19 000  0.84    1.095    0.087     6.54     5.97  25.0
  2342.357   1784.945   1.2678     6.00 000  0.00    1.313    0.239     1.15     0.88 -50.9
    70.397   2529.573   0.0768    15.68 008  0.00    2.196    0.545     4.21     1.91  -1.7
  1701.629   1633.790   0.8562    16.90 002  0.00    1.514    0.340     3.47     2.29 -10.3
  1696.629   1629.931   0.9082    18.69 002  0.00    1.652    0.395     4.00     2.42 -32.6
  2882.195   1640.750  -0.5742    19.68 000  0.01    1.253    0.202     6.80     5.43  21.3
  1716.590   1929.334  -0.1976    19.26 000  0.02    1.228    0.186     5.94     4.84  27.8
  1212.100   1645.260  -1.3030    18.70 000  0.24    1.114    0.102     6.94     6.23  33.8
   426.205   2254.050   0.5933    19.61 000  0.00    1.230    0.187     4.34     3.53  51.4
  1904.502   2006.507  -1.4331    18.50 000  0.82    1.280    0.219     6.23     4.87  29.8
    25.702   1990.247   0.5658    17.86 000  0.00    1.255    0.203     4.46     3.56  65.9
  2334.487   1782.516   1.2675     6.07 000  0.00    1.354    0.262     1.18     0.87  45.7
  1765.869   1748.700  -1.6064    18.34 000  0.82    1.152    0.132     6.59     5.72  27.4
  1719.028   2259.065  -0.2624    18.39 000  0.00    1.261    0.207     5.85     4.64  34.7
