#HEIGHT=  2532
#WIDTH =  3352
#TIME  =  0.000000
#          #
#   1 X_IMAGE         Object position along x                         [pixel]
#   2 Y_IMAGE         Object position along y                         [pixel]
#   3 MAG_APER        Fixed aperture magnitude vector                 [mag]
#   4 FWHM_IMAGE      FWHM assuming a gaussian core                   [pixel]
#   5 FLAGS           Extraction flags
#   6 CLASS_STAR      S/G classifier output
#   7 ELONGATION      A_IMAGE/B_IMAGE
#   8 ELLIPTICITY     1 - B_IMAGE/A_IMAGE
#   9 A_IMAGE         Profile RMS along major axis                    [pixel]
#  10 B_IMAGE         Profile RMS along minor axis                    [pixel]
#  11 THETA_IMAGE     Position angle (CCW/x)                          [deg]
   140.989    482.800  -0.3668    16.67 000  0.00    1.027    0.026     5.44     5.30  89.2
  2937.673    891.190   0.9087    18.44 002  0.00    1.240    0.194     3.42     2.76  38.9
  2944.014    895.513   0.9669    11.51 002  0.00    1.763    0.433     2.55     1.45 -26.8
  1492.815   1244.096  -1.0969    19.73 000  0.19    1.181    0.153     6.74     5.71  31.5
   729.225   1212.459   1.0836    13.41 000  0.00    1.688    0.408     2.91     1.72  43.0
  2579.888   1376.662  -0.9148    21.03 000  0.08    1.267    0.211     7.43     5.86  25.9
  1064.640   1380.646   1.1315    11.38 002  0.00    2.046    0.511     2.72     1.33  54.0
  1069.713   1381.797   1.0593    11.97 002  0.00    1.229    0.186     2.21     1.80  78.7
  1921.972   1501.195  -1.5380    20.90 000  0.77    1.173    0.148     7.57     6.45  34.0
  1507.980   1453.868   1.1340    22.71 000  0.00    1.632    0.387     4.83     2.96  36.6
  1369.313   1542.197  -2.3118    20.44 000  0.84    1.157    0.136     7.83     6.77  39.9
  1702.293   2255.362  -0.2439    22.86 000  0.00    1.343    0.256     6.45     4.80  42.4
    55.684   2528.274   0.0082    15.77 008  0.00    1.718    0.418     4.42     2.57   4.4
  1684.897   1628.390   0.9771    23.00 000  0.00    1.726    0.421     5.04     2.92  44.8
  1196.091   1641.476  -0.9549    19.72 000  0.14    1.220    0.181     6.30     5.16  46.7
  2866.642   1636.815  -0.3965    21.17 000  0.04    1.357    0.263     6.70     4.94  30.3
  1700.732   1926.340  -0.3270    21.30 000  0.00    1.254    0.202     6.84     5.46  37.9
   411.236   2251.211   0.6923    25.78 000  0.00    1.579    0.367     5.40     3.42  56.1
  1889.054   2002.576  -1.5627    21.21 000  0.82    1.225    0.183     7.65     6.25  35.6
    11.168   1987.153   0.7653    23.83 000  0.00    1.381    0.276     4.66     3.38  65.4
  1752.043   1745.248  -1.3333    20.42 000  0.80    1.299    0.230     6.67     5.14  36.2
   544.998   1818.880   0.2609     4.32 000  1.00    1.083    0.077     0.76     0.70  89.5
