#HEIGHT=  2532
#WIDTH =  3352
#TIME  =  0.000000
#          #
#   1 X_IMAGE         Object position along x                         [pixel]
#   2 Y_IMAGE         Object position along y                         [pixel]
#   3 MAG_APER        Fixed aperture magnitude vector                 [mag]
#   4 FWHM_IMAGE      FWHM assuming a gaussian core                   [pixel]
#   5 FLAGS           Extraction flags
#   6 CLASS_STAR      S/G classifier output
#   7 ELONGATION      A_IMAGE/B_IMAGE
#   8 ELLIPTICITY     1 - B_IMAGE/A_IMAGE
#   9 A_IMAGE         Profile RMS along major axis                    [pixel]
#  10 B_IMAGE         Profile RMS along minor axis                    [pixel]
#  11 THETA_IMAGE     Position angle (CCW/x)                          [deg]
  3034.995     10.251   1.2709     9.33 000  0.00    1.615    0.381     1.98     1.23  57.0
   166.127    485.302  -0.4098    18.43 000  0.00    1.135    0.119     5.89     5.19 -14.6
  2963.175    893.233   0.9176    20.93 000  0.00    1.451    0.311     4.20     2.90  20.6
  1518.013   1246.012  -1.3354    20.19 000  0.09    1.167    0.143     7.52     6.44  18.6
   753.850   1212.572   1.1217    13.90 002  0.00    1.125    0.111     2.46     2.19   1.4
   760.174   1216.047   1.1918     4.75 002  0.02    1.602    0.376     1.79     1.12 -30.7
  2605.057   1378.912  -1.0303    21.12 000  0.01    1.290    0.225     7.49     5.81  17.3
  1090.935   1381.163   1.1371    19.48 000  0.00    1.394    0.283     3.83     2.75  36.7
  1533.237   1455.341   0.9430    23.96 000  0.00    1.413    0.292     4.75     3.36  30.8
  1947.034   1503.548  -1.6453    21.14 000  0.76    1.223    0.182     7.99     6.53  19.2
   626.857   1446.190   1.5421     5.81 000  0.04    3.825    0.739     1.90     0.50  62.2
  1394.898   1543.638  -2.1661    19.21 000  0.84    1.200    0.166     6.68     5.56  25.7
   545.003   1818.865   0.2544     0.92 000  1.00    1.087    0.080     0.76     0.70  88.4
    79.686   2529.134   0.0227    14.49 008  0.00    1.966    0.491     4.19     2.13  -1.1
  1391.939   1597.018   1.3856     7.84 000  0.00    4.099    0.756     2.66     0.65  85.3
  1709.206   1630.022   0.9342    25.26 000  0.00    1.306    0.234     4.81     3.68  35.5
  1220.897   1643.989  -1.2479    19.12 000  0.22    1.151    0.131     6.62     5.75  26.0
  1776.493   1747.806  -1.5597    20.00 000  0.82    1.310    0.236     6.98     5.33  24.6
  2891.476   1639.240  -0.4969    20.44 000  0.00    1.355    0.262     6.59     4.86  20.3
   436.000   2253.530   0.6275    20.76 000  0.00    1.292    0.226     4.73     3.66  42.7
  1915.030   2005.483  -1.5233    20.51 000  0.80    1.328    0.247     7.35     5.54  23.9
  1726.181   1928.573  -0.4762    21.28 000  0.00    1.238    0.193     7.06     5.70  24.2
    35.154   1988.871   0.6729    22.05 000  0.00    1.224    0.183     4.74     3.87  50.4
  1728.329   2257.896  -0.5681    21.25 000  0.00    1.265    0.209     7.20     5.70  26.1
