#HEIGHT=  2532
#WIDTH =  3352
#TIME  =  0.000000
#          #
#   1 X_IMAGE         Object position along x                         [pixel]
#   2 Y_IMAGE         Object position along y                         [pixel]
#   3 MAG_APER        Fixed aperture magnitude vector                 [mag]
#   4 FWHM_IMAGE      FWHM assuming a gaussian core                   [pixel]
#   5 FLAGS           Extraction flags
#   6 CLASS_STAR      S/G classifier output
#   7 ELONGATION      A_IMAGE/B_IMAGE
#   8 ELLIPTICITY     1 - B_IMAGE/A_IMAGE
#   9 A_IMAGE         Profile RMS along major axis                    [pixel]
#  10 B_IMAGE         Profile RMS along minor axis                    [pixel]
#  11 THETA_IMAGE     Position angle (CCW/x)                          [deg]
  2986.126      8.528   1.2589    10.46 000  0.00    1.491    0.329     2.13     1.43  32.9
   116.450    483.831  -0.5855    14.94 000  0.00    1.007    0.007     5.11     5.07 -62.7
  1573.071    866.710   1.2184     9.95 000  0.00    1.315    0.239     1.91     1.45  25.5
  2914.692    891.755   0.7242    20.23 000  0.00    1.426    0.299     4.45     3.12  24.2
  1468.236   1244.641  -1.4958    17.89 000  0.35    1.155    0.135     6.98     6.04  31.9
   704.418   1211.029   0.9802    17.26 000  0.00    1.469    0.319     3.49     2.37  49.4
  2555.658   1377.650  -1.1651    18.67 000  0.01    1.284    0.221     7.08     5.52  29.4
  1041.946   1379.308   0.9299    19.00 000  0.00    1.389    0.280     3.73     2.69  28.5
  1132.838   1375.665   1.3647     4.55 002  0.00    2.067    0.516     1.10     0.53 -23.8
  1132.327   1378.339   1.3766     3.69 002  0.01    1.650    0.394     0.80     0.49 -64.9
  1897.566   1502.060  -1.7703    18.45 000  0.49    1.216    0.178     7.39     6.08  31.2
  1483.023   1453.453   0.5609    18.20 002  0.00    1.317    0.241     4.27     3.24  24.0
  1344.740   1542.978  -2.6131    17.51 000  0.83    1.180    0.153     7.58     6.42  37.8
  1492.745   1458.003   0.9875     0.00 002  1.00    1.028    0.027     0.78     0.76   1.1
   515.298   1497.988   1.3778     5.33 000  0.00    2.570    0.611     1.43     0.56  76.8
   544.994   1818.887   0.2281     4.33 000  1.00    1.086    0.079     0.76     0.70 -88.7
    30.969   2528.595  -0.3383    14.46 008  0.00    1.754    0.430     4.63     2.64   2.4
  2046.560   1541.522   0.8726     2.37 000  0.03    1.187    0.157     0.95     0.80  39.1
  1726.878   1746.244  -1.8223    18.40 000  0.79    1.234    0.190     7.46     6.04  35.7
  2842.500   1638.274  -0.7565    18.22 000  0.01    1.310    0.237     6.63     5.06  30.1
  1660.009   1628.912   0.8353    22.54 000  0.00    1.365    0.267     4.39     3.22  26.1
  1172.493   1642.523  -1.3059    16.23 000  0.57    1.242    0.195     5.92     4.77  34.0
   386.243   2251.634   0.3091    18.13 000  0.00    1.271    0.213     4.90     3.86  50.6
  2298.138   1780.267   1.1370    12.00 000  0.00    2.251    0.556     3.00     1.33  30.5
   426.060   1932.627   0.0426     1.00 000  0.03    1.055    0.052     0.90     0.85  62.7
  1863.510   2003.561  -1.7309    17.70 000  0.77    1.349    0.259     6.66     4.94  33.4
  1676.099   1926.789  -0.5052    17.81 000  0.01    1.326    0.246     6.09     4.59  31.1
  1195.726   1863.202   1.3274     6.07 000  0.00    1.771    0.435     1.35     0.76  71.0
  1678.342   2256.379  -0.4016    17.52 000  0.00    1.421    0.296     5.71     4.02  34.2
