#HEIGHT=  2532
#WIDTH =  3352
#TIME  =  0.000000
#          #
#   1 X_IMAGE         Object position along x                         [pixel]
#   2 Y_IMAGE         Object position along y                         [pixel]
#   3 MAG_APER        Fixed aperture magnitude vector                 [mag]
#   4 FWHM_IMAGE      FWHM assuming a gaussian core                   [pixel]
#   5 FLAGS           Extraction flags
#   6 CLASS_STAR      S/G classifier output
#   7 ELONGATION      A_IMAGE/B_IMAGE
#   8 ELLIPTICITY     1 - B_IMAGE/A_IMAGE
#   9 A_IMAGE         Profile RMS along major axis                    [pixel]
#  10 B_IMAGE         Profile RMS along minor axis                    [pixel]
#  11 THETA_IMAGE     Position angle (CCW/x)                          [deg]
  3037.684     11.192   1.1308    11.37 002  0.00    1.506    0.336     2.33     1.55  42.5
  3042.708     10.275   1.1490     8.78 002  0.00    2.289    0.563     2.22     0.97  56.9
   168.209    485.655  -0.6271    16.20 000  0.00    1.144    0.126     5.56     4.86 -30.3
  2632.915    748.277  -0.6575     3.04 000  0.79    1.348    0.258     1.16     0.86 -86.0
  2966.339    893.761   0.6486    21.04 000  0.00    1.405    0.288     4.48     3.19  15.5
  1627.126    870.621   1.2901     8.65 002  0.00    1.948    0.487     2.02     1.04  -5.3
  1625.810    866.609   1.3671     5.02 002  0.02    1.621    0.383     1.08     0.66  30.9
  1519.735   1246.474  -1.5256    17.94 000  0.30    1.195    0.163     7.32     6.13   3.4
   756.891   1212.846   0.9575    17.53 002  0.00    1.050    0.047     2.99     2.85  47.8
   761.267   1215.985   0.9910     4.60 002  0.03    1.548    0.354     1.47     0.95 -52.3
  2607.442   1379.424  -1.2595    18.09 000  0.09    1.285    0.222     7.00     5.45  12.0
  1094.547   1381.184   0.8683    19.67 000  0.00    1.171    0.146     3.55     3.03   9.4
  1185.525   1379.376   1.3133     8.62 000  0.00    1.562    0.360     1.80     1.15 -49.1
  1536.598   1455.785   0.6606    21.90 000  0.00    1.207    0.171     4.41     3.65  19.6
  1948.961   1504.172  -1.8003    18.84 000  0.81    1.223    0.182     7.62     6.23   9.0
  1396.831   1544.259  -2.4693    16.52 000  0.84    1.207    0.171     6.44     5.34   9.0
   567.372   1499.996   1.3416     5.86 000  0.00    1.672    0.402     1.27     0.76   5.4
  1248.787   1867.202   1.3512     5.97 002  0.00    2.294    0.564     1.52     0.66 -42.8
    83.256   2529.785   0.0383    15.04 008  0.00    2.382    0.580     4.15     1.74  -0.7
  2893.615   1639.825  -0.6851    17.34 000  0.00    1.360    0.265     6.08     4.47  13.0
  1778.601   1748.377  -1.6424    16.29 000  0.82    1.274    0.215     6.01     4.71  14.0
  1712.071   1630.689   0.7661    22.45 000  0.00    1.285    0.222     4.55     3.54  21.5
  2350.870   1783.214   1.2361    13.82 000  0.00    1.561    0.359     2.88     1.84  49.7
   438.562   2253.788   0.4499    16.55 000  0.00    1.174    0.148     4.21     3.59  52.7
  1727.963   1929.175  -0.6546    18.34 000  0.01    1.207    0.172     6.54     5.41  14.4
  2570.457   2160.773   1.2760     8.49 000  0.00    2.020    0.505     2.02     1.00  28.3
    38.364   1989.704   0.5255    17.20 000  0.00    1.193    0.161     4.32     3.62  42.9
  1916.113   2005.577  -1.8573    18.03 000  0.83    1.173    0.148     7.25     6.18  16.1
   544.996   1818.872   0.2249     0.93 000  1.00    1.084    0.078     0.76     0.70  89.8
  1223.035   1644.565  -1.4077    16.55 000  0.58    1.168    0.144     6.19     5.30   6.3
  1730.011   2258.298  -0.7144    18.51 000  0.00    1.201    0.167     6.67     5.56  20.8
  1252.341   1868.347   1.3468     4.43 002  0.00    1.787    0.440     1.00     0.56  30.6
