#HEIGHT=  2532
#WIDTH =  3352
#TIME  =  0.000000
#          #
#   1 X_IMAGE         Object position along x                         [pixel]
#   2 Y_IMAGE         Object position along y                         [pixel]
#   3 MAG_APER        Fixed aperture magnitude vector                 [mag]
#   4 FWHM_IMAGE      FWHM assuming a gaussian core                   [pixel]
#   5 FLAGS           Extraction flags
#   6 CLASS_STAR      S/G classifier output
#   7 ELONGATION      A_IMAGE/B_IMAGE
#   8 ELLIPTICITY     1 - B_IMAGE/A_IMAGE
#   9 A_IMAGE         Profile RMS along major axis                    [pixel]
#  10 B_IMAGE         Profile RMS along minor axis                    [pixel]
#  11 THETA_IMAGE     Position angle (CCW/x)                          [deg]
  3047.130     10.523   1.0919    11.64 000  0.00    1.698    0.411     2.53     1.49   5.3
   177.600    485.096  -0.4263    18.12 000  0.00    1.142    0.124     5.85     5.12  -4.2
  2975.893    893.745   0.8303    24.38 000  0.00    1.784    0.440     5.43     3.04  22.3
  1529.150   1245.963  -1.3073    20.47 000  0.17    1.212    0.175     7.46     6.16  15.9
   762.034   1213.671   1.0732    15.94 002  0.00    1.535    0.348     3.29     2.14 -75.9
   768.249   1215.112   1.1017    13.12 002  0.00    1.335    0.251     2.53     1.89 -43.6
  2616.605   1379.316  -0.9929    21.89 000  0.01    1.315    0.240     7.53     5.73  18.6
  1102.315   1381.750   1.1992    19.43 002  0.00    1.646    0.393     4.16     2.52  40.6
  1105.736   1377.004   1.1866     1.44 002  0.88    1.223    0.182     0.83     0.68  46.4
  1958.594   1503.525  -1.5707    21.70 000  0.82    1.248    0.199     7.82     6.27  18.7
  1544.358   1455.647   1.0034    23.53 000  0.00    1.597    0.374     4.96     3.10  32.2
  1405.605   1544.554  -2.3827    20.35 000  0.84    1.192    0.161     7.90     6.63  21.1
   544.990   1818.866   0.2539     0.92 000  1.00    1.085    0.078     0.76     0.70 -88.9
    92.082   2529.381  -0.0730    16.33 008  0.00    2.420    0.587     4.85     2.00  -0.1
  1232.840   1644.120  -1.0522    20.23 000  0.23    1.258    0.205     6.70     5.32  23.3
  2903.719   1639.763  -0.4574    21.93 000  0.00    1.425    0.298     6.99     4.90  20.7
  1720.915   1630.036   0.9411    26.06 000  0.00    1.335    0.251     5.02     3.76  33.8
   110.999   1566.731   0.0793     0.88 000  0.99    1.183    0.154     0.83     0.71 -89.6
  1788.830   1747.950  -1.5565    21.00 000  0.84    1.274    0.215     7.34     5.76  20.6
  2357.507   1783.012   1.3837     4.77 002  0.00    2.088    0.521     1.16     0.56  62.5
  2354.500   1781.987   1.3587     2.75 002  0.01    1.043    0.041     0.75     0.72 -86.2
   447.122   2253.318   0.4675    21.72 000  0.00    1.349    0.259     5.47     4.05  42.8
  1736.936   1928.510  -0.2511    21.01 000  0.00    1.310    0.237     6.46     4.93  23.7
   537.735   2169.671   0.4349     3.37 000  0.41    1.332    0.249     1.12     0.84  -3.9
    47.309   1989.442   0.6412    20.28 000  0.00    1.228    0.186     4.70     3.83  47.2
  1924.899   2005.358  -1.5616    21.07 000  0.83    1.338    0.253     7.33     5.48  25.2
  1738.860   2257.989  -0.1752    21.72 000  0.00    1.434    0.303     6.30     4.39  28.8
