#HEIGHT=  2532
#WIDTH =  3352
#TIME  =  0.000000
#          #
#   1 X_IMAGE         Object position along x                         [pixel]
#   2 Y_IMAGE         Object position along y                         [pixel]
#   3 MAG_APER        Fixed aperture magnitude vector                 [mag]
#   4 FWHM_IMAGE      FWHM assuming a gaussian core                   [pixel]
#   5 FLAGS           Extraction flags
#   6 CLASS_STAR      S/G classifier output
#   7 ELONGATION      A_IMAGE/B_IMAGE
#   8 ELLIPTICITY     1 - B_IMAGE/A_IMAGE
#   9 A_IMAGE         Profile RMS along major axis                    [pixel]
#  10 B_IMAGE         Profile RMS along minor axis                    [pixel]
#  11 THETA_IMAGE     Position angle (CCW/x)                          [deg]
  2930.002      4.494   1.3539     4.85 002  0.00    2.751    0.636     1.35     0.49 -42.6
  2927.328      3.319   1.3729     3.40 002  0.01    1.740    0.425     0.76     0.44  86.6
    59.707    480.661  -0.4450    16.48 000  0.00    1.123    0.109     5.59     4.98  -9.2
  2855.779    887.525   0.8290    21.11 002  0.00    1.583    0.368     4.43     2.80  19.9
  2864.094    891.172   1.0135    10.56 002  0.00    1.135    0.119     1.88     1.65  57.7
  1412.129   1241.013  -1.2388    20.32 000  0.14    1.251    0.201     7.47     5.97  21.7
   648.353   1208.700   1.1979    16.75 000  0.00    1.428    0.300     3.34     2.34  41.8
  2499.519   1374.362  -0.9514    21.93 000  0.11    1.350    0.259     7.54     5.59  20.8
   985.996   1376.575   1.0582    20.56 000  0.00    1.699    0.412     4.47     2.63  35.7
  1431.223   1453.675   0.8597    18.45 002  0.00    1.916    0.478     4.26     2.22  -7.5
  1424.086   1448.577   0.8927    15.52 002  0.00    1.249    0.199     2.89     2.32 -18.8
  1840.940   1499.408  -1.4291    21.34 000  0.82    1.380    0.275     7.09     5.14  20.6
  1288.521   1539.454  -2.3692    20.06 000  0.84    1.191    0.160     7.71     6.48  20.9
  3176.285   1839.571   0.3021    10.83 000  0.03    2.039    0.509     2.58     1.27 -29.1
  2786.130   1635.052  -0.5516    21.80 000  0.01    1.397    0.284     7.19     5.14  24.5
  1608.203   1628.086   0.9306    16.27 002  0.00    1.550    0.355     3.38     2.18 -11.1
  1599.916   1623.508   0.9514    15.91 002  0.00    1.186    0.157     2.89     2.44  -9.9
  1116.266   1639.535  -1.2838    19.99 000  0.16    1.217    0.178     7.38     6.07  22.8
  1669.212   1742.490  -1.5145    20.90 000  0.83    1.330    0.248     7.03     5.29  21.6
   329.235   2248.758   0.6193    21.94 000  0.00    1.523    0.344     5.03     3.30  40.9
  1620.376   1923.533  -0.3483    22.05 000  0.01    1.397    0.284     6.94     4.97  24.4
  1618.312   2250.831  -0.3132    14.45 002  0.00    1.212    0.175     4.27     3.52 -46.9
  1811.880   2003.188  -1.4020    13.42 002  0.78    1.476    0.322     4.69     3.18 -26.0
  1803.726   1998.292  -1.4083    13.78 002  0.79    1.306    0.234     4.75     3.63 -37.5
  1626.080   2255.940  -0.3322    14.76 002  0.00    1.385    0.278     4.80     3.47 -30.2
   544.997   1818.872   0.2676     4.32 000  1.00    1.089    0.081     0.76     0.70  88.9
